File: Papers/CryValid/output_xrd/NTCAR99HKL.csv
H,K,L,Distance,2theta/TOF,Mult
0,0,2,4.0319,22.0462,2
0,2,0,3.9894,22.2841,4
0,2,2,2.8358,31.5491,8
2,2,0,2.8209,31.7201,4
2,-2,2,2.3113,38.968,8
0,0,-4,2.0159,44.9673,2
0,4,0,1.9947,45.4718,4
0,-2,4,1.7992,50.7422,8
0,-4,-2,1.7878,51.0889,8
4,2,0,1.7841,51.2026,8
-2,2,4,1.6401,56.0744,16
-4,-2,-2,1.6315,56.3963,8
4,0,4,1.4179,65.8725,8
4,4,0,1.4104,66.2677,4
0,0,6,1.3439,70.0094,2
-2,4,4,1.336,70.4847,8
-4,4,2,1.3313,70.7707,16
0,-6,0,1.3298,70.8626,4
0,2,-6,1.2736,74.502,8
0,6,2,1.2628,75.2491,8
6,-2,0,1.2615,75.3402,8
-2,2,6,1.2133,78.898,16
-2,6,2,1.204,79.6282,16
4,4,4,1.1556,83.6898,1
-4,0,-6,1.1145,87.5326,8
6,0,-4,1.11,87.9784,8
-4,6,0,1.1064,88.3388,8
-4,-2,-6,1.0734,91.8128,16
-6,-2,-4,1.0694,92.2561,16
6,4,-2,1.067,92.5245,16
0,0,8,1.0079,99.7922,2
-8,0,0,0.9973,101.249,4
2,0,8,0.9772,104.167,8
4,-4,6,0.9729,104.82,16
-4,-6,-4,0.9699,105.281,8
0,-8,-2,0.9681,105.561,8
-8,2,0,0.9675,105.654,8
-2,-2,8,0.9492,108.619,8
0,6,-6,0.9452,109.297,8
-8,-2,-2,0.9408,110.056,8
6,6,0,0.9403,110.143,4
2,6,6,0.9198,113.888,8
-6,-6,2,0.9157,114.681,8
0,4,-8,0.8996,117.954,8
8,0,4,0.8939,119.179,8
-8,4,0,0.892,119.597,8
2,-4,-8,0.8776,122.91,16
2,8,4,0.8723,124.203,16
-4,8,2,0.871,124.527,16