File: Papers/CryValid/output_xrd/NTCAR99_Extinction_peak.csv
H,K,L,Distance,2theta/TOF,Mult
0,0,1,8.0638,10.972,2
0,1,0,7.9788,11.0893,4
1,0,-1,5.6717,15.6241,8
-1,1,0,5.6419,15.7071,8
-1,-1,1,4.6227,19.2,8
-1,0,2,3.5985,24.7411,8
2,0,1,3.5757,24.9014,8
1,-2,0,3.5682,24.9546,8
-1,1,-2,3.2803,27.185,16
1,-2,-1,3.263,27.3319,16
0,0,3,2.6879,33.3343,2
1,2,2,2.672,33.5385,8
-2,-2,1,2.6627,33.6591,8
0,3,0,2.6596,33.6995,4
0,-1,3,2.5472,35.2341,8
0,3,-1,2.5257,35.544,8
3,1,0,2.5231,35.5819,8
1,1,-3,2.4266,37.0472,8
-1,-3,-1,2.408,37.3439,8
0,2,3,2.2291,40.4666,8
0,3,-2,2.2201,40.6379,8
-2,3,0,2.2129,40.776,8
-2,1,-3,2.1469,42.0881,16
3,1,-2,2.1388,42.2551,16
-3,-2,1,2.134,42.3547,16
0,-1,4,1.9545,46.4613,8
-2,2,-3,1.9459,46.6787,16
-2,3,2,1.9399,46.8317,16
0,-4,1,1.9363,46.924,8
-1,4,0,1.9351,46.9548,8
-1,-1,-4,1.8984,47.9188,8
3,0,-3,1.8905,48.1317,8
-4,1,-1,1.8817,48.3711,16
-3,3,0,1.8806,48.4013,8
3,-1,3,1.8396,49.5517,8
-3,-3,1,1.8314,49.7886,8
2,-1,-4,1.7552,52.1083,16
-1,4,-2,1.7446,52.449,16
2,-4,-1,1.742,52.5332,16
-3,-2,3,1.7084,53.6482,16
-3,-3,2,1.7043,53.7876,8
0,0,5,1.6127,57.1137,2
0,-3,4,1.6065,57.3545,8
0,4,-3,1.6018,57.5385,8
0,-5,0,1.5957,57.7792,4
0,1,5,1.5807,58.3801,8
3,1,-4,1.5749,58.616,16
4,-1,3,1.5704,58.8004,16
4,-3,1,1.5654,59.0067,16
1,5,0,1.5647,59.0358,8
1,1,5,1.5506,59.6266,8
3,-3,-3,1.5409,60.0404,8
5,-1,-1,1.5361,60.2474,8
0,2,5,1.4952,62.0747,8
2,3,4,1.4902,62.3062,16
2,4,-3,1.4864,62.4834,16
-3,-4,2,1.4837,62.6099,16
2,-5,0,1.4816,62.7087,8
2,-1,5,1.4696,63.2797,16
5,1,-2,1.4587,63.8081,16
-5,2,-1,1.4572,63.8815,16
2,2,-5,1.4001,66.8188,8
4,1,4,1.396,67.041,8
5,2,-2,1.3907,67.3305,16
-4,4,1,1.3893,67.4074,16
0,3,-5,1.379,67.9793,8
-3,-3,-4,1.3751,68.1985,8
0,-5,3,1.3721,68.3682,8
5,3,0,1.3683,68.5845,8
-3,-1,5,1.3588,69.1318,16
5,-1,3,1.3523,69.5117,16
5,3,1,1.349,69.7063,16
0,1,6,1.3252,71.1458,8
0,6,-1,1.312,71.9726,8
1,6,0,1.3117,71.9916,8
-1,1,6,1.3073,72.272,16
2,-3,-5,1.3033,72.529,16
-5,-2,3,1.2975,72.9053,16
3,5,2,1.2957,73.0229,16
1,-6,1,1.2947,73.0884,8
-1,-2,-6,1.2577,75.6077,16
0,-4,5,1.2541,75.8631,8
0,-5,4,1.2512,76.0703,8
4,4,-3,1.2489,76.2354,8
1,-6,2,1.2473,76.3508,16
2,-6,-1,1.2464,76.4159,16
-4,5,0,1.246,76.4448,8
4,1,5,1.2389,76.963,16
-5,1,-4,1.2361,77.1695,16
4,5,1,1.2314,77.5188,16
3,3,5,1.2242,78.061,8
5,-3,3,1.2194,78.4271,16
3,0,-6,1.1995,79.9871,8
-2,-4,-5,1.1964,80.2364,16
-2,-5,4,1.1938,80.4468,16
0,6,3,1.1919,80.6014,8
4,-5,2,1.1905,80.7158,16
-3,6,0,1.1894,80.8058,8
1,-3,-6,1.1861,81.0775,16
6,-1,3,1.1788,81.6858,16
6,-3,-1,1.1766,81.8711,16
0,0,7,1.1519,84.0199,2
2,-3,-6,1.1487,84.3077,16
6,2,3,1.142,84.9178,16
6,3,-2,1.1408,85.0282,16
-1,0,-7,1.1401,85.0927,8
0,7,0,1.1398,85.1204,4
4,-3,-5,1.1343,85.6316,16
-3,5,4,1.1321,85.8381,16
5,-4,3,1.1305,85.989,16
-7,0,1,1.1286,86.169,8
-7,-1,0,1.1283,86.1975,8
5,-1,-5,1.123,86.7046,16
-1,7,1,1.1174,87.248,16
2,0,7,1.1067,88.3087,8
-1,-4,-6,1.1038,88.6013,16
1,6,-4,1.0994,89.0497,16
-7,0,-2,1.0968,89.3172,8
-4,6,1,1.0962,89.3792,16
7,2,0,1.0959,89.4103,8
3,3,-6,1.0934,89.6699,8
5,2,5,1.091,89.9208,8
3,-6,3,1.0876,90.2791,8
-7,-1,-2,1.0866,90.3851,16
-7,-2,-1,1.0859,90.4595,16
2,2,-7,1.0664,92.5919,8
4,4,-5,1.0617,93.1239,8
4,5,4,1.0599,93.3297,8
2,-7,2,1.0576,93.5941,8
0,3,7,1.057,93.6634,8
0,7,-3,1.0493,94.5636,8
3,-1,-7,1.0479,94.7296,16
-3,7,0,1.0476,94.7652,8
-3,-5,5,1.0434,95.2677,16
7,1,-3,1.0404,95.6307,16
-3,7,1,1.0389,95.8134,16
0,-5,-6,1.0279,97.1799,8
0,-6,5,1.026,97.4208,8
6,-3,4,1.0244,97.6248,16
-4,6,-3,1.0231,97.7914,16
-3,2,-7,1.0218,97.9586,16
-6,-5,0,1.0215,97.9973,8
1,-5,6,1.0195,98.2562,16
-1,-6,5,1.0176,98.5038,16
7,2,3,1.0148,98.8714,16
7,-3,-2,1.014,98.9771,16
-6,5,-1,1.0134,99.0565,16
0,1,8,1.0,100.873,8
-4,0,-7,0.9975,101.221,8
5,-2,-6,0.9954,101.516,16
-6,-2,5,0.9936,101.771,16
0,-7,4,0.9922,101.97,8
-6,-5,-2,0.9902,102.256,16
0,-8,1,0.9898,102.313,8
8,-1,0,0.9896,102.342,8
5,4,5,0.986,102.864,8
1,7,4,0.9846,103.068,16
-3,-3,-7,0.9823,103.406,8
-4,7,1,0.9822,103.421,16
3,7,-3,0.9761,104.333,16
2,-1,8,0.97,105.266,16
4,2,-7,0.9677,105.623,16
-7,2,-4,0.9628,106.395,16
7,-4,2,0.9611,106.667,16
-2,8,-1,0.9606,106.747,16
-5,3,6,0.9588,107.037,16
-3,6,5,0.9572,107.296,16
-5,-6,-3,0.9549,107.672,16
0,-3,8,0.9425,109.761,8
-1,6,6,0.9387,110.423,8
-1,3,8,0.936,110.9,16
8,0,-3,0.935,111.078,8
-5,0,-7,0.934,111.257,8
-6,6,-1,0.9339,111.275,16
-3,8,0,0.9338,111.293,8
7,0,-5,0.9308,111.835,8
3,7,4,0.9296,112.054,16
7,4,3,0.9287,112.219,16
3,8,-1,0.9276,112.422,16
7,5,0,0.9275,112.44,8
5,5,-5,0.9245,112.998,8
-5,-7,-1,0.9214,113.583,16
2,-3,8,0.9173,114.37,16
-4,-5,6,0.9137,115.073,16
6,4,5,0.9123,115.35,16
-5,6,4,0.9112,115.569,16
8,2,3,0.9103,115.749,16
8,3,-2,0.9097,115.87,16
2,-5,-7,0.9094,115.93,16
7,2,5,0.9064,116.539,16
-7,-5,2,0.9039,117.053,16
0,0,-9,0.8959,118.745,2
4,4,-7,0.8922,119.553,8
-3,-6,-6,0.8906,119.907,8
1,0,-9,0.8903,119.974,8
-3,-3,-8,0.8884,120.399,8
1,8,-4,0.8883,120.422,16
-6,6,-3,0.8875,120.602,16
4,-8,-1,0.8866,120.807,16
9,0,0,0.8865,120.83,4
-1,1,9,0.8848,121.218,16
3,8,-3,0.8821,121.844,16
9,0,-1,0.8812,122.055,8
-1,-9,0,0.8811,122.079,8
-7,-3,-5,0.8785,122.694,16
-5,7,-3,0.8767,123.126,16
9,-1,-1,0.8759,123.32,8
0,2,-9,0.8742,123.735,8
0,6,-7,0.8707,124.602,8
0,-7,-6,0.8692,124.98,8