File: Papers/CryValid/output_xrd/TCAR123HKL.csv
H,K,L,Distance,2theta/TOF,Mult
0,0,2,4.0178,22.1246,2
0,2,0,3.9962,22.2457,4
0,2,2,2.8333,31.5777,8
2,2,0,2.8257,31.6648,4
2,-2,2,2.3113,38.968,8
0,0,-4,2.0089,45.1326,2
0,4,0,1.9981,45.3901,4
0,-2,4,1.7949,50.8724,8
0,-4,-2,1.789,51.0522,8
4,2,0,1.7871,51.1104,8
-2,2,4,1.6373,56.1788,16
-4,-2,-2,1.6329,56.3436,8
4,0,4,1.4166,65.9406,8
4,4,0,1.4128,66.1407,4
0,0,6,1.3392,70.2913,2
-2,4,4,1.3352,70.5332,8
-4,4,2,1.3328,70.6792,16
0,-6,0,1.332,70.728,4
0,2,-6,1.2698,74.763,8
0,6,2,1.2643,75.1444,8
6,-2,0,1.2637,75.1862,8
-2,2,6,1.2102,79.1397,16
-2,6,2,1.2054,79.5173,16
4,4,4,1.1556,83.6898,1
-4,0,-6,1.1125,87.73,8
6,0,-4,1.1101,87.9684,8
-4,6,0,1.1083,88.1482,8
-4,-2,-6,1.0717,92.0005,16
-6,-2,-4,1.0696,92.2338,16
6,4,-2,1.0684,92.3677,16
0,0,8,1.0044,100.267,2
-8,0,0,0.999,101.012,4
2,0,8,0.9741,104.636,8
4,-4,6,0.9719,104.973,16
-4,-6,-4,0.9704,105.204,8
0,-8,-2,0.9695,105.343,8
-8,2,0,0.9692,105.39,8
-2,-2,8,0.9464,109.092,8
0,6,-6,0.9444,109.434,8
-8,-2,-2,0.9422,109.813,8
6,6,0,0.9419,109.865,4
2,6,6,0.9191,114.022,8
-6,-6,2,0.917,114.428,8
0,4,-8,0.8974,118.422,8
8,0,4,0.8945,119.049,8
-8,4,0,0.8935,119.267,8
2,-4,-8,0.8756,123.393,16
2,8,4,0.8729,124.055,16
-4,8,2,0.8722,124.228,16