File: Papers/CryValid/output_xrd/TCAR123_Extinction_peak.csv
H,K,L,Distance,2theta/TOF,Mult
0,0,1,8.0357,11.0105,2
0,1,0,7.9924,11.0703,4
1,0,-1,5.6667,15.638,8
-1,1,0,5.6515,15.6803,8
-1,-1,1,4.6227,19.2,8
-1,0,2,3.5898,24.8021,8
2,0,1,3.5781,24.8845,8
1,-2,0,3.5743,24.9113,8
-1,1,-2,3.2746,27.2333,16
1,-2,-1,3.2658,27.3081,16
0,0,3,2.6785,33.4547,2
1,2,2,2.6705,33.5579,8
-2,-2,1,2.6657,33.6201,8
0,3,0,2.6641,33.6409,4
0,-1,3,2.5397,35.3416,8
0,3,-1,2.5287,35.5005,8
3,1,0,2.5274,35.5193,8
1,1,-3,2.4204,37.1456,8
-1,-3,-1,2.4109,37.2974,8
0,2,3,2.225,40.5444,8
0,3,-2,2.2203,40.6341,8
-2,3,0,2.2167,40.703,8
-2,1,-3,2.1434,42.1601,16
3,1,-2,2.1393,42.2447,16
-3,-2,1,2.1368,42.2965,16
0,-1,4,1.9483,46.6178,8
-2,2,-3,1.9439,46.7296,16
-2,3,2,1.9409,46.8062,16
0,-4,1,1.939,46.8548,8
-1,4,0,1.9384,46.8701,8
-1,-1,-4,1.8929,48.0668,8
3,0,-3,1.8889,48.1751,8
-4,1,-1,1.8844,48.2974,16
-3,3,0,1.8838,48.3138,8
3,-1,3,1.8382,49.592,8
-3,-3,1,1.8341,49.7103,8
2,-1,-4,1.7512,52.2363,16
-1,4,-2,1.7458,52.4102,16
2,-4,-1,1.7445,52.4522,16
-3,-2,3,1.7077,53.6719,16
-3,-3,2,1.7056,53.7433,8
0,0,5,1.6071,57.3311,2
0,-3,4,1.604,57.4523,8
0,4,-3,1.6015,57.5503,8
0,-5,0,1.5984,57.6724,4
0,1,5,1.5756,58.5874,8
3,1,-4,1.5726,58.7101,16
4,-1,3,1.5703,58.8045,16
4,-3,1,1.5677,58.9116,16
1,5,0,1.5674,58.924,8
1,1,5,1.5458,59.8306,8
3,-3,-3,1.5409,60.0404,8
5,-1,-1,1.5384,60.148,8
0,2,5,1.491,62.269,8
2,3,4,1.4885,62.3853,16
2,4,-3,1.4866,62.474,16
-3,-4,2,1.4852,62.5395,16
2,-5,0,1.4841,62.5911,8
2,-1,5,1.4658,63.4628,16
5,1,-2,1.4602,63.7348,16
-5,2,-1,1.4594,63.7738,16
2,2,-5,1.397,66.9866,8
4,1,4,1.3949,67.1008,8
5,2,-2,1.3922,67.2483,16
-4,4,1,1.3915,67.2866,16
0,3,-5,1.3761,68.1422,8
-3,-3,-4,1.3741,68.255,8
0,-5,3,1.3726,68.3399,8
5,3,0,1.3706,68.4534,8
-3,-1,5,1.3561,69.289,16
5,-1,3,1.3528,69.4823,16
5,3,1,1.3511,69.5823,16
0,1,6,1.3208,71.4191,8
0,6,-1,1.3141,71.8396,8
1,6,0,1.3139,71.8523,8
-1,1,6,1.3032,72.5355,16
2,-3,-5,1.3011,72.6712,16
-5,-2,3,1.2982,72.8596,16
3,5,2,1.2972,72.9248,16
1,-6,1,1.2967,72.9575,8
-1,-2,-6,1.2541,75.8631,16
0,-4,5,1.2523,75.9915,8
0,-5,4,1.2508,76.0989,8
4,4,-3,1.2496,76.1851,8
1,-6,2,1.2488,76.2426,16
2,-6,-1,1.2483,76.2787,16
-4,5,0,1.2482,76.2859,8
4,1,5,1.2372,77.0882,16
-5,1,-4,1.2357,77.199,16
4,5,1,1.2334,77.3697,16
3,3,5,1.2226,78.1826,8
5,-3,3,1.2202,78.3658,16
3,0,-6,1.1966,80.2202,8
-2,-4,-5,1.195,80.3495,16
-2,-5,4,1.1937,80.455,16
0,6,3,1.1927,80.5363,8
4,-5,2,1.192,80.5933,16
-3,6,0,1.1914,80.6422,8
1,-3,-6,1.1834,81.3013,16
6,-1,3,1.1796,81.6186,16
6,-3,-1,1.1785,81.711,16
0,0,7,1.1479,84.38,2
2,-3,-6,1.1463,84.5251,16
6,2,3,1.1429,84.8353,16
6,3,-2,1.1422,84.8995,16
0,7,0,1.1417,84.9454,4
-1,0,-7,1.1363,85.4449,8
4,-3,-5,1.1333,85.7254,16
-3,5,4,1.1322,85.8287,16
5,-4,3,1.1313,85.9135,16
-7,0,1,1.1304,85.9985,8
-7,-1,0,1.1303,86.0079,8
1,1,7,1.1249,86.5221,8
5,-1,-5,1.1221,86.7914,16
-1,7,1,1.1192,87.0725,16
2,0,7,1.1033,88.652,8
-1,-4,-6,1.1018,88.8045,16
1,6,-4,1.0996,89.0293,16
-7,0,-2,1.0982,89.173,8
-4,6,1,1.0979,89.2038,16
7,2,0,1.0978,89.2141,8
-2,-1,7,1.0929,89.722,16
3,3,-6,1.0915,89.8684,8
5,2,5,1.0903,89.9943,8
3,-6,3,1.0886,90.1733,8
-7,-1,-2,1.088,90.2367,16
-7,-2,-1,1.0877,90.2685,16
2,2,-7,1.0635,92.9193,8
4,4,-5,1.0611,93.1924,8
4,5,4,1.0602,93.2953,8
2,-7,2,1.059,93.4329,8
0,3,7,1.0542,93.9884,8
0,7,-3,1.0503,94.4455,8
-3,7,0,1.0494,94.5518,8
3,-1,-7,1.0452,95.0516,16
-3,-5,5,1.0429,95.328,16
7,1,-3,1.0413,95.5214,16
-3,7,1,1.0406,95.6064,16
0,-5,-6,1.0265,97.3573,8
0,-6,5,1.0255,97.4845,8
6,-3,4,1.0247,97.5865,16
-4,6,-3,1.0241,97.6632,16
-6,-5,0,1.0233,97.7657,8
-3,2,-7,1.0193,98.2822,16
1,-5,6,1.0182,98.4254,16
-1,-6,5,1.0172,98.5561,16
7,2,3,1.0158,98.7397,16
7,-3,-2,1.0153,98.8055,16
-6,5,-1,1.0151,98.8319,16
0,1,8,0.9966,101.348,8
-4,0,-7,0.9953,101.53,8
5,-2,-6,0.9943,101.672,16
-6,-2,5,0.9933,101.813,16
0,-7,4,0.9926,101.913,8
-6,-5,-2,0.9916,102.055,16
0,-8,1,0.9914,102.084,8
8,-1,0,0.9913,102.098,8
1,-1,8,0.9889,102.443,16
-1,-4,7,0.9877,102.616,16
5,4,5,0.9858,102.893,8
1,7,4,0.985,103.01,16
-4,7,1,0.9838,103.185,16
-3,-3,-7,0.9802,103.718,8
3,7,-3,0.9771,104.182,16
2,-1,8,0.967,105.733,16
4,2,-7,0.9658,105.921,16
-7,2,-4,0.9633,106.316,16
7,-4,2,0.9624,106.459,16
-2,8,-1,0.9622,106.491,16
-5,3,6,0.9579,107.182,16
-3,6,5,0.9571,107.312,16
-5,-6,-3,0.9559,107.508,16
0,-3,8,0.9398,110.23,8
-1,6,6,0.9379,110.564,8
8,0,-3,0.936,110.9,8
-6,6,-1,0.9355,110.989,16
-3,8,0,0.9354,111.007,8
-1,3,8,0.9334,111.365,16
-5,0,-7,0.9324,111.545,8
7,0,-5,0.9307,111.854,8
3,7,4,0.9301,111.963,16
7,4,3,0.9297,112.036,16
3,8,-1,0.9291,112.146,16
1,5,7,0.9261,112.7,16
5,5,-5,0.9245,112.998,8
-5,-7,-1,0.9229,113.299,16
2,-3,8,0.9149,114.837,16
-4,-5,6,0.9131,115.192,16
6,4,5,0.9124,115.33,16
-5,6,4,0.9118,115.449,16
8,2,3,0.9113,115.549,16
8,3,-2,0.911,115.609,16
2,-5,-7,0.908,116.213,16
7,2,5,0.9065,116.518,16
-7,-5,2,0.9052,116.785,16
0,0,-9,0.8928,119.42,2
-1,-4,-8,0.8918,119.641,16
4,4,-7,0.8909,119.84,8
-3,-6,-6,0.8901,120.018,8
1,8,-4,0.8889,120.287,16
-6,6,-3,0.8885,120.377,16
4,-8,-1,0.8881,120.467,16
9,0,0,0.888,120.489,4
1,0,-9,0.8873,120.648,8
-3,-3,-8,0.8863,120.875,8
3,8,-3,0.8831,121.611,16
-1,-9,0,0.8826,121.728,8
-1,1,9,0.8819,121.891,16
-5,-3,7,0.88,122.338,16
-7,-3,-5,0.8787,122.647,16
-5,7,-3,0.8777,122.886,16
9,-1,-1,0.8773,122.982,8
0,2,-9,0.8713,124.452,8
0,6,-7,0.8696,124.879,8