File: Papers/MgCAST/WPEM10premin_annealing/output_xrd/GdAl2_Extinction_peak.csv
H,K,L,Distance,2theta/TOF,Mult
0,0,1,7.8843,11.2226,6
-1,1,0,5.5751,15.8966,24
0,2,0,3.9421,22.555,6
2,0,1,3.526,25.2582,24
1,-2,-1,3.2187,27.7156,48
-2,-2,1,2.6281,34.1157,24
3,1,0,2.4932,36.0231,24
-2,3,0,2.1867,41.2867,24
-2,1,-3,2.1071,42.922,48
0,-1,4,1.9122,47.5516,24
-4,1,-1,1.8583,49.02,48
4,2,0,1.763,51.8606,24
2,-1,-4,1.7205,53.241,48
-3,-2,3,1.6809,54.5982,48
0,-5,0,1.5768,58.5385,6
3,1,-4,1.5462,59.8135,48
2,4,-3,1.464,63.55,48
2,-1,5,1.4394,64.7671,48
2,2,-5,1.3724,68.3512,24
0,-5,3,1.3521,69.5235,24
-4,4,2,1.314,71.8459,48
1,6,0,1.2961,72.9967,24
3,5,2,1.279,74.1345,48
0,-5,4,1.2313,77.5263,24
-5,1,-4,1.2165,78.6502,48
0,6,3,1.1753,81.9811,24
6,-3,-1,1.1624,83.0909,48
0,7,0,1.1263,86.3881,6
-7,0,1,1.115,87.4833,24
-4,6,0,1.0933,89.6803,24