File: Papers/MgCAST/WPEM10premin_annealing/output_xrd/LiAlHKL.csv
H,K,L,Distance,2theta/TOF,Mult
-1,-1,1,3.6527,24.3684,24
0,2,2,2.2368,40.3212,12
-1,-3,-1,1.9075,47.676,24
0,4,0,1.5816,58.3437,6
3,-1,3,1.4514,64.1672,24
-2,2,4,1.2914,73.3056,48
3,-3,-3,1.2175,78.5731,24
4,0,4,1.1184,87.1504,12