File: Papers/MgCAST/WPEM10premin_annealing/output_xrd/YAl2_Extinction_peak.csv
H,K,L,Distance,2theta/TOF,Mult
0,0,1,7.8488,11.2735,6
-1,1,0,5.5499,15.9692,24
0,2,0,3.9244,22.658,6
2,0,1,3.5101,25.3745,24
1,-2,-1,3.2042,27.8435,48
-2,-2,1,2.6162,34.2757,24
3,1,0,2.482,36.1913,24
-2,3,0,2.1768,41.4831,24
-2,1,-3,2.0976,43.1261,48
0,-1,4,1.9036,47.7798,24
-4,1,-1,1.8499,49.2574,48
4,2,0,1.755,52.1147,24
2,-1,-4,1.7127,53.5027,48
-3,-2,3,1.6733,54.8669,48
0,-5,0,1.5697,58.8292,6
3,1,-4,1.5392,60.1135,48
2,4,-3,1.4574,63.8717,48
2,-1,5,1.433,65.092,48
2,2,-5,1.3663,68.699,24
0,-5,3,1.346,69.8843,24
-4,4,2,1.3081,72.2208,48
1,6,0,1.2903,73.3783,24
3,5,2,1.2732,74.5294,48
0,-5,4,1.2257,77.9473,24
-5,1,-4,1.2111,79.0694,48
0,6,3,1.17,82.433,24
6,-3,-1,1.1572,83.548,48
0,7,0,1.1212,86.8784,6
-7,0,1,1.1099,87.9883,24