File: Papers/Nano energy/WPEM-100/output_xrd/Mn2O3HKL.csv
H,K,L,Distance,2theta/TOF,Mult
0,1,1,6.6538,13.2958,12
0,0,2,4.705,18.8456,6
1,1,2,3.8416,23.1341,24
0,1,3,2.9757,30.0051,24
2,2,2,2.7164,32.9471,8
1,2,3,2.5149,35.672,48
0,0,4,2.3525,38.2266,6
0,3,3,2.2179,40.6456,12
0,2,4,2.1041,42.9497,24
2,3,3,2.0062,45.1581,24
2,2,4,1.9208,47.285,24
0,1,5,1.8454,49.3429,24
1,2,5,1.718,53.2781,48
0,4,4,1.6634,55.1728,12
0,3,5,1.6138,57.0208,24
0,0,6,1.5683,58.8346,6
1,1,6,1.5265,60.6117,24
0,2,6,1.4878,62.3618,24
1,4,5,1.4519,64.0844,48
2,2,6,1.4186,65.7759,24
1,3,6,1.3874,67.4502,48
4,4,4,1.3582,69.1028,8
0,1,7,1.3307,70.7416,24
0,4,6,1.3049,72.3581,24
1,2,7,1.2805,73.9633,48
2,4,6,1.2574,75.557,48
0,3,7,1.2355,77.1399,24
1,5,6,1.195,80.2713,48
0,0,8,1.1762,81.8245,6
1,1,8,1.1582,83.377,24
0,2,8,1.1411,84.9157,24
3,5,6,1.1247,86.454,48
0,5,7,1.0938,89.5362,24