File: Papers/CoBasedSuperalloys /base/output_xrd/BCCAlHKL.csv
H,K,L,Distance,2theta/TOF,Mult
0,0,1,2.866,31.2081,6
-1,1,0,2.0265,44.7193,24
-1,-1,1,1.6546,55.5402,24
0,2,0,1.433,65.092,6
2,0,1,1.2817,73.9523,24
1,-2,-1,1.17,82.433,48
0,2,2,1.0132,99.083,12
-2,-2,1,0.9553,107.606,24
3,1,0,0.9063,116.559,24