File: Papers/CoBasedSuperalloys /base/output_xrd/CoHKL.csv
H,K,L,Distance,2theta/TOF,Mult
0,0,1,3.32,26.8538,6
-1,1,0,2.3475,38.3434,24
-1,-1,1,1.9168,47.4305,24
0,2,0,1.66,55.344,6
2,0,1,1.4847,62.563,24
1,-2,-1,1.3553,69.3358,48
0,2,2,1.1737,82.1169,12
-2,-2,1,1.1066,88.3187,24
3,1,0,1.0498,94.5045,24
-1,-3,-1,1.001,100.735,24
2,-2,2,0.9584,107.101,24
-2,3,0,0.9208,113.697,24