File: Papers/CoBasedSuperalloys /base/output_xrd/FCCAlHKL.csv
H,K,L,Distance,2theta/TOF,Mult
0,0,1,4.037,22.018,6
-1,1,0,2.8546,31.336,24
-1,-1,1,2.3307,38.6307,24
0,2,0,2.0185,44.9062,6
2,0,1,1.8054,50.5556,24
1,-2,-1,1.6481,55.7784,48
0,2,2,1.4273,65.3843,12
-2,-2,1,1.3456,69.9081,24
3,1,0,1.2766,74.2973,24
-1,-3,-1,1.2172,78.5962,24
2,-2,2,1.1653,82.8385,24
-2,3,0,1.1196,87.0336,24
-2,1,-3,1.0789,91.2115,48
0,4,0,1.0092,99.6171,6
0,-1,4,0.9791,103.882,24
-4,1,-1,0.9515,108.234,48
3,-1,3,0.9261,112.7,24
4,2,0,0.9027,117.302,24