File: Papers/CoBasedSuperalloys /base/output_xrd/NiHKL.csv
H,K,L,Distance,2theta/TOF,Mult
0,0,1,3.6,24.7307,6
-1,1,0,2.5455,35.2584,24
-1,-1,1,2.0784,43.5447,24
0,2,0,1.8,50.718,6
2,0,1,1.6099,57.2222,24
1,-2,-1,1.4696,63.2797,48
0,2,2,1.2727,74.5636,12
-2,-2,1,1.2,79.947,24
3,1,0,1.1384,85.2498,24
-1,-3,-1,1.0854,90.5127,24
2,-2,2,1.0392,95.7768,24
-2,3,0,0.9984,101.096,24
-2,1,-3,0.9621,106.507,48
0,4,0,0.9,117.869,6