File: Papers/Li_rich/base/output_xrd/4Mn5O12_Extinction_peak.csv
H,K,L,Distance,2theta/TOF,Mult
0,0,1,8.1616,10.8401,6
-1,1,0,5.7711,15.3534,24
0,2,0,4.0808,21.7788,6
2,0,1,3.6499,24.3873,24
1,-2,-1,3.3319,26.7561,48
-2,-2,1,2.7205,32.9234,24
3,1,0,2.5809,34.7593,24
-2,3,0,2.2636,39.8235,24
-2,1,-3,2.1812,41.3955,48
0,-1,4,1.9794,45.8432,24
-4,1,-1,1.9237,47.25,48
4,2,0,1.8249,49.9781,24
2,-1,-4,1.781,51.2981,48
-3,-2,3,1.74,52.5982,48
0,-5,0,1.6323,56.3662,6
3,1,-4,1.6006,57.5857,48
2,4,-3,1.5155,61.1532,48
2,-1,5,1.49,62.3155,48
2,2,-5,1.4207,65.7262,24
0,-5,3,1.3997,66.8404,24
1,6,0,1.3417,70.1411,24
3,5,2,1.3239,71.2263,48
0,-5,4,1.2746,74.4336,24
-5,1,-4,1.2593,75.4948,48
0,6,3,1.2166,78.6425,24
6,-3,-1,1.2033,79.6838,48