File: Papers/SAC105/output_xrd/Cu6Sn5_Extinction_peak.csv
H,K,L,Distance,2theta/TOF,Mult
2,-1,-2,3.4668,25.6968,4
1,-2,-1,3.3076,26.9564,4
3,0,1,3.2459,27.4788,2
3,0,-2,3.1522,28.3123,2
1,0,3,2.9849,29.9353,2
-1,2,2,2.8839,31.0095,4
1,2,2,2.7546,32.5045,4
3,0,-3,2.6275,34.1238,2
-4,1,1,2.5617,35.0282,4
4,-1,0,2.5536,35.143,4
-1,0,4,2.4541,36.6173,2
3,-2,1,2.4238,37.0916,4
-4,1,-1,2.3871,37.6832,4
0,3,-1,2.3569,38.1846,4
0,-1,4,2.3062,39.0577,4
-3,0,-3,2.254,40.0004,4
-2,3,0,2.219,40.6589,4
2,-3,-1,2.1933,41.1568,4
-3,2,-2,2.179,41.4393,4
4,-1,-3,2.1624,41.7722,4
2,-3,1,2.1347,42.3401,4
5,0,-2,2.1147,42.7601,2
-5,0,-1,2.0619,43.9112,2
-2,-1,-4,2.0213,44.8406,4
1,0,-5,1.9675,46.1365,2
-1,2,-4,1.9445,46.7143,4
3,2,3,1.9169,47.4278,4
3,0,4,1.8914,48.1073,2
5,0,2,1.8852,48.2756,2
0,1,5,1.8792,48.4396,4
-3,-2,4,1.8715,48.6518,4
2,-1,-5,1.8636,48.8715,4
5,2,-2,1.829,49.8584,4
4,3,0,1.8137,50.3081,4
-5,2,-1,1.7945,50.8846,4
2,-3,3,1.7801,51.326,4
-6,1,0,1.7636,51.8416,4
1,4,1,1.7592,51.981,4
4,-3,1,1.7511,52.2395,4
-1,2,5,1.7313,52.883,4
0,-3,4,1.7184,53.3112,4
-1,-4,2,1.6996,53.9484,4
2,-3,-4,1.6923,54.2001,4
-3,-2,-4,1.6787,54.6757,4
-1,4,-2,1.6719,54.9168,4
1,2,5,1.6609,55.3115,4
-6,1,3,1.6559,55.4929,4
4,3,2,1.6453,55.8816,4
3,-2,-5,1.6395,56.0967,4
3,-4,-1,1.6247,56.6536,4
2,3,4,1.5903,57.994,4
5,2,-4,1.5872,58.1181,4
0,1,6,1.5821,58.3234,4
-7,0,1,1.5765,58.5507,2
-1,0,-6,1.5686,58.8745,2
1,-4,3,1.5551,59.4367,4
6,-1,-4,1.5405,60.0576,4
4,-3,-4,1.5304,60.4952,4
3,-4,2,1.5135,61.2427,4
2,-3,-5,1.51,61.4,4
-3,-4,3,1.4972,61.9826,4
1,-2,-6,1.4956,62.0562,4
4,-1,-6,1.4669,63.4097,4
1,4,-4,1.4629,63.6034,4
6,-1,3,1.4607,63.7104,4
-6,3,0,1.4553,63.9748,4
-5,-2,5,1.4469,64.3908,4
6,3,-2,1.4437,64.5508,4
-1,-2,-6,1.4408,64.6965,4
-7,-2,2,1.4298,65.2557,4
-7,0,-2,1.4217,65.6742,2
3,-4,3,1.4169,65.9249,4
6,-3,1,1.4141,66.0721,4
-5,0,6,1.4083,66.3793,2
-1,0,7,1.4053,66.5394,2
3,0,6,1.4025,66.6895,2
4,-3,-5,1.3995,66.8512,4
5,2,4,1.3969,66.9921,4
-6,-3,3,1.393,67.2045,4
4,-3,4,1.3876,67.5011,4
7,-2,-3,1.3843,67.6837,4
-2,-1,7,1.3734,68.2946,4
2,-5,-2,1.3671,68.6531,4
0,1,7,1.3646,68.7965,4
-1,0,-7,1.3524,69.5058,2
0,-3,-6,1.3482,69.7537,4
8,-1,0,1.3399,70.2492,4
-1,4,5,1.3368,70.4362,4
5,4,-3,1.3324,70.7036,4
-7,0,-3,1.327,71.0347,2
6,3,-4,1.3222,71.3319,4
-7,2,4,1.318,71.5942,4
3,4,4,1.3122,71.9599,4
-2,5,3,1.3106,72.0615,4
-8,-1,3,1.3099,72.106,4
-1,-4,-5,1.3036,72.5097,4
-3,4,5,1.2932,73.187,4
4,-1,6,1.2874,73.5708,4
-4,5,0,1.2854,73.7041,4
-2,-1,-7,1.2793,74.1142,4
-2,5,-3,1.2732,74.5294,4
6,-3,3,1.2707,74.701,4
5,-4,-4,1.267,74.9566,4
4,-3,5,1.2638,75.1792,4
4,5,1,1.2625,75.2701,4
0,-5,4,1.2501,76.1492,4
-8,-1,-2,1.2447,76.5391,4
5,-4,3,1.2404,76.8529,4
7,-2,-5,1.2398,76.8969,4
-7,0,-4,1.229,77.6986,2
4,5,-3,1.2256,77.9549,4
-7,0,6,1.2204,78.3505,2
1,-4,-6,1.2189,78.4655,4
2,-3,-7,1.212,78.9992,4
-2,1,8,1.21,79.1554,4
-3,-4,-5,1.2086,79.2652,4
0,3,7,1.2059,79.4778,4
8,-3,-1,1.1995,79.9871,4
-2,-5,-4,1.1981,80.0994,4
1,-6,1,1.1955,80.3091,4
3,-4,-6,1.1904,80.7239,4
8,3,0,1.1888,80.8551,4
-1,0,-8,1.1882,80.9044,2
-7,4,0,1.1841,81.2431,4
-9,0,-1,1.1804,81.5516,2
-8,-1,-3,1.1773,81.8121,4
4,-5,-4,1.1718,82.2789,4
-8,3,3,1.1677,82.6308,4
4,5,3,1.1664,82.7431,4
4,-1,-8,1.1643,82.9253,4
-2,-5,5,1.1626,83.0734,4
8,-3,1,1.1615,83.1696,4
9,0,-4,1.1576,83.5127,2
7,4,-3,1.1564,83.6189,4
4,-1,7,1.1529,83.9304,4
-3,6,0,1.152,84.0109,4
3,-6,-1,1.1506,84.1365,4
3,2,-8,1.1482,84.3529,4
-6,-5,1,1.1421,84.9086,4
3,-6,1,1.1376,85.324,4
9,2,-3,1.137,85.3798,4
7,0,5,1.1341,85.6504,2
-6,5,2,1.1315,85.8946,4
-8,3,4,1.1291,86.1216,4
-1,-6,-3,1.125,86.5125,4
7,-4,2,1.1208,86.9172,4
8,-1,-6,1.1187,87.1212,4
7,4,-4,1.1169,87.2969,4
6,1,6,1.1137,87.6114,4
-3,4,-6,1.1114,87.8391,4
3,6,2,1.109,88.0781,4
-6,5,3,1.1066,88.3187,4
4,5,4,1.1039,88.5912,4
3,0,8,1.1031,88.6723,2
-6,-3,-5,1.1022,88.7638,4
-2,-3,8,1.0952,89.4828,4
-10,1,1,1.0902,90.0048,4
-10,-1,2,1.0884,90.1945,4
-5,-2,8,1.0867,90.3745,4
-6,-5,-2,1.0844,90.6194,4
0,-5,-6,1.0838,90.6835,4
9,0,3,1.0819,90.8874,2
2,1,-9,1.0802,91.0707,4
7,2,-7,1.0758,91.5492,4
-10,-1,3,1.0732,91.8348,4
8,3,3,1.0708,92.1003,4
3,-6,3,1.0692,92.2784,4
-7,-4,5,1.0681,92.4012,4
-3,6,4,1.0612,93.181,4
9,-2,-5,1.0595,93.3755,4
3,2,8,1.0558,93.8023,4
-5,-6,2,1.0532,94.1051,4
-5,-2,-7,1.0513,94.3278,4
-4,-1,9,1.0506,94.4102,4
10,-1,-4,1.0464,94.9081,4
-1,-2,9,1.0458,94.9798,4
2,-5,6,1.0427,95.3521,4
0,7,0,1.0411,95.5457,2
-7,0,8,1.0386,95.85,2
-5,-4,7,1.0378,95.9479,4
0,7,1,1.0352,96.2678,4
-5,0,9,1.0332,96.5156,2
5,-6,-3,1.0315,96.7275,4
6,-5,-5,1.0254,97.4972,4
3,-4,7,1.0229,97.817,4
-6,-3,-6,1.0223,97.8942,4
-5,-6,-2,1.021,98.0619,4
-2,-7,1,1.0201,98.1784,4
0,7,2,1.018,98.4515,4
1,2,9,1.0173,98.543,4
-8,3,-4,1.0157,98.7529,4
9,-4,-2,1.0139,98.9903,4