File: Papers/SAC105/output_xrd/Ti2Sn3_Extinction_peak.csv
H,K,L,Distance,2theta/TOF,Mult
0,5,1,3.4716,25.6607,4
0,1,-2,3.4608,25.7421,4
1,4,1,3.3598,26.5299,4
1,5,0,3.3164,26.8835,4
0,3,-2,3.1074,28.7292,4
-1,0,2,3.0264,29.5154,4
2,1,0,2.9452,30.3484,4
1,6,0,2.9047,30.782,4
1,2,2,2.8962,30.8746,4
0,7,0,2.852,31.3653,2
2,0,1,2.7418,32.6604,4
-2,3,0,2.718,32.9545,4
-2,-1,-1,2.7163,32.9758,4
1,-6,1,2.6844,33.379,4
0,7,1,2.6426,33.9229,4
0,5,2,2.6379,33.9851,4
-1,4,-2,2.5878,34.6637,8
-1,-7,0,2.5722,34.8806,4
2,-3,1,2.535,35.4093,8
2,-5,0,2.387,37.6848,4
0,0,3,2.3427,38.4251,2
0,-1,3,2.3267,38.6998,4
1,-8,0,2.3016,39.1389,4
-2,-5,-1,2.2602,39.886,8
-2,1,-2,2.2572,39.9412,4
1,-6,2,2.2388,40.2837,8
0,-9,0,2.2182,40.6742,2
0,7,2,2.2144,40.7471,4
0,-3,3,2.2097,40.8376,4
-1,8,-1,2.1873,41.2748,4
1,0,3,2.18,41.4194,4
-2,3,2,2.1499,42.0265,8
-1,2,-3,2.1298,42.4422,8
0,-9,-1,2.1153,42.7474,4
-1,-9,0,2.0787,43.5381,4
2,-7,0,2.0597,43.9606,4
0,-5,3,2.0205,44.8593,4
1,-4,-3,1.9978,45.3973,8
3,0,0,1.9851,45.7041,2
-2,-7,1,1.9765,45.9144,8
3,1,0,1.9754,45.9414,4
2,-5,-2,1.9745,45.9635,8
3,2,0,1.947,46.6508,4
1,-8,2,1.9253,47.2083,8
3,0,-1,1.9104,47.5992,4
-3,3,0,1.9023,47.8144,4
1,10,0,1.8928,48.0695,4
-3,-2,1,1.8763,48.5193,8
0,9,2,1.8757,48.5358,4
-3,4,0,1.8446,49.4084,4
2,0,3,1.8412,49.5057,4
-2,1,-3,1.8334,49.7306,8
1,10,-1,1.8277,49.8963,8
-1,-6,-3,1.8235,50.0191,8
0,-11,0,1.8149,50.2726,2
0,7,-3,1.8102,50.4122,4
3,-4,1,1.7842,51.1995,8
2,-9,0,1.7789,51.3631,4
-3,-5,0,1.7776,51.4034,4
2,-7,2,1.7769,51.4251,4
2,3,-3,1.7745,51.4998,8
0,-11,1,1.7572,52.0446,4
0,-1,4,1.7502,52.2684,4
1,-11,0,1.736,52.7288,4
3,0,-2,1.7284,52.9786,4
-2,9,-1,1.7245,53.1078,8
-3,6,0,1.7048,53.7706,4
-3,2,-2,1.7031,53.8286,8
0,-3,4,1.6988,53.9758,4
-1,0,4,1.6852,54.4473,4
-2,5,3,1.6719,54.9168,8
-1,-10,-2,1.6664,55.1134,8
-1,2,-4,1.6617,55.2826,8
3,-6,-1,1.6567,55.4638,8
1,8,3,1.6418,56.0112,8
-3,-4,2,1.6332,56.3323,8
-3,7,0,1.6293,56.4793,4
0,11,2,1.6125,57.1215,4
0,-9,-3,1.6107,57.1912,4
0,-5,4,1.6082,57.2883,4
-1,12,0,1.6023,57.5189,4
-1,4,-4,1.5966,57.7436,8
2,9,2,1.5871,58.1221,4
1,12,1,1.5622,59.1396,4
-3,8,0,1.5535,59.504,4
-2,-11,0,1.5497,59.6647,4
2,7,-3,1.5468,59.788,8
3,6,2,1.5338,60.3471,8
3,8,-1,1.5169,61.0908,8
3,0,-3,1.5145,61.198,4
-2,-11,1,1.5133,61.2517,8
2,-1,-4,1.5089,61.4496,8
1,6,-4,1.5033,61.7035,8
-3,-2,3,1.4974,61.9734,8
0,-7,4,1.4959,62.0424,4
4,-1,0,1.4847,62.563,4
-3,-9,0,1.4792,62.822,4
2,3,4,1.4755,62.9976,8
-1,-10,-3,1.4723,63.1503,8
-1,12,-2,1.4579,63.8472,8
4,0,-1,1.4565,63.9158,4
4,3,0,1.4529,64.0931,4
-4,1,-1,1.4527,64.1029,8
3,-4,3,1.4492,64.2763,4
0,-11,-3,1.4347,65.0053,4
4,-3,1,1.4228,65.617,8
3,-8,2,1.4209,65.7158,8
-2,-11,2,1.4179,65.8725,8
2,-9,3,1.4167,65.9354,8
-2,-5,4,1.415,66.0247,8
3,10,0,1.4076,66.4165,4
0,0,5,1.4056,66.5233,2
0,1,5,1.4021,66.711,4
1,8,-4,1.3965,67.0138,8
-4,5,0,1.395,67.0954,4
3,10,-1,1.3802,67.9121,8
3,-6,3,1.3784,68.0129,4
0,-9,-4,1.3773,68.0746,4
0,3,-5,1.3752,68.1929,4
4,5,1,1.3683,68.5845,8
1,0,-5,1.368,68.6017,4
-4,1,2,1.3677,68.6188,8
-1,2,5,1.3553,69.3358,8
4,3,-2,1.3427,70.0812,8
-3,-11,0,1.3394,70.2793,4
2,-7,4,1.3367,70.4423,8
0,5,5,1.3258,71.1088,4
1,12,3,1.3225,71.3133,8
4,-7,0,1.3198,71.4815,4
-1,4,5,1.3193,71.5128,8
3,0,-4,1.3157,71.7387,4
3,10,2,1.3067,72.3104,8
-3,-2,-4,1.3044,72.4581,8
-4,7,1,1.2971,72.9314,8
4,-5,2,1.2966,72.964,8
3,8,-3,1.2947,73.0884,8
2,-11,3,1.2925,73.2331,8
1,10,-4,1.2877,73.5508,8
3,12,0,1.2751,74.3995,4
3,4,4,1.2722,74.5979,4
-2,0,5,1.2711,74.6735,4
2,-1,5,1.2685,74.8527,8
-1,-6,5,1.2652,75.0817,8
0,11,-4,1.2623,75.2841,4
0,-7,5,1.2608,75.3893,4
4,0,3,1.2565,75.6926,4
-3,12,1,1.2546,75.8275,8
4,-1,3,1.2541,75.8631,8
2,9,4,1.25,76.1563,8
2,-3,-5,1.2485,76.2642,8
4,-9,0,1.2362,77.1621,4
-4,-7,-2,1.2355,77.2139,8
4,-3,-3,1.2347,77.2732,4
-3,6,-4,1.2235,78.1141,8
-4,-9,1,1.2175,78.5731,8
-2,-5,5,1.2112,79.0616,8
-3,-10,-3,1.2066,79.4226,4
-1,8,5,1.1996,79.9791,8
4,5,-3,1.1986,80.0593,8
-5,0,0,1.1911,80.6667,2
-5,1,0,1.189,80.8387,4
0,-9,-5,1.1873,80.9785,4
-1,12,4,1.1839,81.2597,8
5,2,0,1.1827,81.3595,4
-5,0,1,1.1743,82.0659,4
5,3,0,1.1724,82.2277,4
0,1,6,1.1693,82.4931,4
-5,2,-1,1.1663,82.7518,8
-4,9,2,1.1661,82.7691,8
-3,-8,-4,1.1638,82.9688,8
2,-11,4,1.1622,83.1084,8
2,7,-5,1.161,83.2134,8
-5,4,0,1.1585,83.4332,4
0,-3,-6,1.1536,83.8679,4
4,11,0,1.1511,84.0916,4
-4,7,3,1.1499,84.1995,8
-1,0,-6,1.1493,84.2536,4
-3,0,-5,1.1471,84.4525,4
5,4,1,1.1431,84.817,8
-1,-2,-6,1.1417,84.9454,8
5,5,0,1.1414,84.973,1
3,2,5,1.1396,85.1388,8
4,1,4,1.134,85.6597,4
1,-10,5,1.1285,86.1785,8
5,0,-2,1.128,86.226,4
0,-5,-6,1.1239,86.618,4
5,6,0,1.1214,86.8591,4
5,2,-2,1.1209,86.9075,8
-1,-4,-6,1.12,86.9948,8
3,12,3,1.1199,87.0045,4
4,-3,-4,1.1197,87.0239,8
-3,4,5,1.118,87.1894,8
0,11,5,1.1113,87.849,4
-5,-6,-1,1.1074,88.2384,8
2,-9,5,1.1028,88.7028,8
5,4,2,1.1003,88.9576,8
-5,-7,0,1.0991,89.0805,4
3,10,4,1.0985,89.1421,8
4,-11,-2,1.0939,89.6178,8
4,-9,-3,1.0933,89.6803,8
4,5,4,1.0925,89.7638,4
-2,1,6,1.0884,90.1945,8
-1,6,6,1.0863,90.417,4
-3,6,5,1.0845,90.6087,8
0,-7,-6,1.0835,90.7156,4
2,-3,-6,1.0757,91.5602,8
-5,-6,-2,1.0683,92.3789,8
5,-8,1,1.0625,93.0329,8
5,0,3,1.0617,93.1239,4
-1,12,-5,1.0566,93.7096,8
-5,-2,3,1.0558,93.8023,8
4,7,-4,1.0552,93.872,8
2,-5,6,1.0515,94.3043,8
-5,-9,0,1.0493,94.5636,4
1,-8,-6,1.0439,95.2076,8
3,-8,5,1.0423,95.4004,8
2,11,5,1.0411,95.5457,8
5,-4,3,1.0385,95.8622,8
-4,11,3,1.0331,96.528,8
-3,12,4,1.0319,96.6775,8
5,8,-2,1.0279,97.1799,8
5,-10,0,1.0228,97.8299,4
4,0,5,1.022,97.9328,4
4,1,5,1.0207,98.1007,8
2,7,-6,1.0182,98.4254,8
-5,-10,-1,1.0122,99.2159,8
-5,-6,-3,1.0115,99.3091,8
-4,9,4,1.011,99.3759,8
4,-3,-5,1.0102,99.4829,8
3,0,-6,1.0088,99.6709,4