File: Papers/SnAgCu/output_xrd/Ag3Sn_Extinction_peak.csv
H,K,L,Distance,2theta/TOF,Mult
2,1,0,2.5312,35.4642,4
1,-2,0,2.2187,40.6646,4
3,0,0,1.9893,45.6022,2
0,3,0,1.5934,57.8705,2
3,2,0,1.529,60.5564,4
4,-1,0,1.4242,65.5444,4
-2,3,0,1.4055,66.5287,4
-5,0,0,1.1936,80.4631,2
-1,4,0,1.1717,82.2874,4
4,3,0,1.089,90.1311,4
5,2,0,1.0678,92.4348,4
-3,4,0,1.0244,97.6248,4