File: Papers/SnAgCu/output_xrd/Sn_Extinction_peak.csv
H,K,L,Distance,2theta/TOF,Mult
0,0,1,3.1813,28.048,2
1,-2,0,2.608,34.3868,8
-1,-1,1,2.5188,35.6447,8
2,0,1,2.1495,42.0347,8
0,3,0,1.9439,46.7296,4
3,1,0,1.8441,49.4227,8
-2,-2,1,1.7302,52.9192,8
-2,3,0,1.6174,56.9326,8
-1,-3,-1,1.5954,57.7911,8
0,0,2,1.5906,57.982,2
-1,0,2,1.5345,60.3167,8
-1,4,0,1.4143,66.0616,8
0,2,2,1.3963,67.0246,8
-3,3,0,1.3745,68.2324,8
1,2,2,1.3579,69.1841,8
0,-4,1,1.3253,71.1397,8
-3,-3,1,1.2618,75.3191,8
2,-2,2,1.2594,75.4878,8
0,3,-2,1.231,77.5487,8
2,-4,-1,1.2065,79.4304,16
0,-5,0,1.1663,82.7518,4
1,5,0,1.1436,84.7712,8
-2,3,2,1.1341,85.6504,16
2,-5,0,1.0829,90.78,8
5,-1,-1,1.0762,91.5055,8
0,-4,-2,1.0747,91.6698,8
0,0,3,1.0604,93.2724,2
-1,4,-2,1.0569,93.675,16
1,1,-3,1.027,97.2938,8
-4,-2,-2,1.0084,99.7247,8