File: Papers/SnAgCu/output_xrd/SnHKL.csv
H,K,L,Distance,2theta/TOF,Mult
0,2,0,2.9158,30.6619,4
1,0,-1,2.7927,32.049,8
2,2,0,2.0618,43.9135,4
1,-2,-1,2.0168,44.9461,16
0,3,-1,1.6587,55.3911,8
-1,1,-2,1.484,62.5958,16
0,4,0,1.4579,63.8472,4
-3,-2,1,1.4417,64.6512,16
4,2,0,1.304,72.4839,8
-4,1,-1,1.2924,73.2397,16
3,1,-2,1.2044,79.5965,16
4,-3,1,1.095,89.5035,16
0,-1,3,1.0433,95.2798,8
-3,-3,2,1.04,95.6793,8
4,4,0,1.0309,96.8025,4
-5,2,-1,1.0251,97.5354,16